# https://pubs.acs.org/doi/pdf/10.1021/acs.jpcc.0c04094
# Distance(A) ElectronDensity
-6.49590  41.21746
-6.38370  103.18879
-6.30225  556.88101
-6.23419  1824.99241
-6.19923  2752.86351
-6.16403  3752.89980
-6.04440  6134.46642
-5.95602  3753.11424
-5.92722  2753.14393
-5.89819  1825.33881
-5.86857  1083.10131
-5.82222  567.68517
-5.75964  124.45072
-5.67990  42.05870
-5.58370  104.01354
-5.48688  361.84532
-5.40556  774.30029
-5.29237  1145.55100
-5.22867  1052.83316
-5.14982  692.08971
-5.07101  321.03694
-4.91193  32.54114
-4.54400  12.30190
-4.16293  25.30207
-4.06792  147.32399
-3.99831  538.63765
-3.90402  1104.59615
-3.82788  1243.87118
-3.74050  1105.91375
-3.67798  642.06067
-3.51945  57.66568
-3.42393  34.07516
-3.32753  157.88588
-3.22929  859.01809
-3.14295  2838.48854
-3.05305  5931.36472
-3.02003  6250.98640
-2.97305  5931.44720
-2.87095  2838.76895
-2.82935  838.81184
-2.79923  422.96086
-2.77142  243.15167
-2.69630  65.42332
-2.58282  47.25171
-2.49731  159.10351
-2.44958  292.25305
-2.39811  602.14302
-2.33266  1055.81874
-2.23606  1241.48533
-2.16325  1069.81357
-2.12596  896.11035
-2.09417  581.83780
-1.99943  190.18290
-1.85595  25.38235
-1.51999  15.41943
-1.18395  26.07514
-1.07159  139.59304
-0.94237  521.16955
-0.87734  840.82422
-0.74858  1078.07036
-0.62184  686.44845
-0.51129  232.95417
-0.39978  78.42995
-0.30326  243.47792
-0.18680  1635.35055
-0.15220  2449.81922
-0.08368  3862.26099
0.00078  5254.10063
0.10833  3862.45893
0.18384  2460.47492
0.21336  1639.21015
0.23107  1261.26410
0.24909  977.80943
0.26720  724.83586
0.28549  526.72826
0.31022  371.30069
0.36015  203.50349
0.40725  139.74517
0.54491  295.89871
0.59361  512.44375
0.66483  804.49637
0.76961  1025.08358
0.84496  917.46174
0.91417  688.03196
0.95705  466.45860
1.00388  319.18208
1.06962  164.81282
1.15443  57.60716
1.52006  28.86278
1.84510  55.88071
1.95892  146.42500
2.05401  293.84783
2.12069  434.12913
2.17788  566.27240
2.24217  689.40104
2.35830  772.71312
2.45264  687.46360
2.51845  556.46318
2.58420  407.17409
2.66887  255.46603
2.77265  164.53646
2.88624  181.92613
3.00014  294.82322
3.08564  402.61087
3.26578  520.65643
3.43584  444.62926
3.50190  392.87968
3.70023  281.32050
3.81374  273.30926
3.92734  291.71496
4.04093  308.08859
4.17702  330.57099
4.33706  341.04525
5.16906  341.90298
5.96906  342.72773
