# https://pubs.acs.org/doi/pdf/10.1021/acs.jpcc.0c04094
# Distance(A) ElectronDensity
-6.41902 35.44245
-6.35657 142.15531
-6.34115 203.15257
-6.32579 274.31845
-6.31066 386.15875
-6.29564 518.33627
-6.28091 701.35683
-6.25229 1214.84277
-6.22493 1952.03809
-6.20158 3125.62656
-6.10577 6191.23257
-5.94698 3125.39426
-5.89376 1218.41139
-5.84008 797.55589
-5.82331 619.59087
-5.80647 428.91509
-5.79014 329.75678
-5.77383 233.14062
-5.58378 75.35460
-5.55254 126.16887
-5.52142 197.32037
-5.45131 515.45295
-5.38317 837.81322
-5.36789 924.23201
-5.35251 990.31358
-5.32936 1079.26733
-5.25088 1137.66491
-5.22691 1081.71599
-5.21084 1025.77426
-5.19470 959.66393
-5.16231 807.10604
-5.14608 725.74280
-5.12986 644.37955
-5.11364 563.01630
-5.06833 323.49768
-5.01072 140.96336
-4.93943 40.53336
-4.82607 3.93357
-4.52904 3.66256
-4.26030 3.41736
-4.13336 67.17015
-4.04922 194.83060
-4.00802 413.77112
-3.94766 653.46945
-3.93238 739.88824
-3.91711 826.30702
-3.90175 897.47289
-3.88636 963.55446
-3.86319 1047.42391
-3.81413 1143.52122
-3.75704 1052.22825
-3.72818 951.83696
-3.69636 815.93705
-3.68011 729.48950
-3.66385 643.04195
-3.64763 561.67871
-3.63146 490.48407
-3.61527 414.20512
-3.59913 348.09479
-3.57500 261.64005
-3.54300 177.72027
-3.50314 98.87760
-3.47141 63.25870
-3.35313 52.98222
-3.30644 159.70946
-3.28337 261.37397
-3.26824 373.21427
-3.23844 678.24375
-3.22389 891.77013
-3.20742 1407.56619
-3.15792 2657.52102
-3.11419 4929.37894
-3.06298 5878.23733
-2.88923 2666.39995
-2.83449 1720.15211
-2.81668 1359.15215
-2.79919 1054.07953
-2.76505 591.37910
-2.74836 428.66698
-2.73197 316.79791
-2.71569 225.26606
-2.61219 42.98501
-2.54165 113.25316
-2.50271 194.56607
-2.47158 265.71756
-2.45622 336.88343
-2.42790 438.54314
-2.41005 535.12814
-2.39479 624.08908
-2.37952 710.50786
-2.36420 789.30019
-2.34885 863.00822
-2.33348 931.63194
-2.31550 1004.49018
-2.25559 1095.52883
-2.19215 1028.10427
-2.16792 923.85446
-2.15180 860.28628
-2.13561 786.54949
-2.11945 715.35485
-2.10323 633.99160
-2.08704 560.25481
-2.07084 481.43372
-2.05461 400.07047
-2.03850 339.04444
-2.02241 280.56056
-2.00100 211.05590
-1.96642 135.60756
-1.91873 65.65523
-1.86333 24.50677
-1.51629 0.91370
-1.23341 0.65560
-1.09238 73.51962
-0.99466 301.53265
-0.92060 569.35910
-0.90524 640.52497
-0.87015 794.11977
-0.77306 960.71387
-0.68663 857.82094
-0.62907 684.41076
-0.58931 523.29832
-0.57314 452.10368
-0.54901 365.64894
-0.51694 269.01840
-0.48498 192.72508
-0.44521 129.98270
-0.36613 82.45728
-0.31126 136.63952
-0.28802 207.79820
-0.27267 281.50623
-0.25747 380.63577
-0.24254 528.06621
-0.22802 746.67690
-0.22757 667.87018
-0.21335 939.86607
-0.21303 883.93872
-0.19937 1255.07853
-0.19902 1194.06688
-0.19870 1138.13954
-0.18544 1580.45960
-0.18510 1519.44796
-0.18464 1438.09909
-0.17181 1956.68372
-0.17146 1895.67207
-0.17097 1809.23890
-0.15869 2424.42530
-0.15835 2363.41365
-0.15800 2302.40201
-0.15751 2215.96884
-0.14552 2881.99828
-0.14517 2820.98663
-0.14483 2759.97498
-0.14448 2698.96334
-0.14403 2620.15662
-0.13257 3380.24569
-0.13223 3319.23404
-0.13188 3258.22239
-0.13154 3197.21075
-0.13119 3136.19910
-0.13072 3052.30808
-0.11934 3827.65006
-0.11899 3766.63841
-0.11865 3705.62676
-0.11830 3644.61512
-0.11796 3583.60347
-0.11747 3497.17030
-0.11193 3911.53388
-0.10622 4295.39164
-0.10588 4234.38000
-0.10553 4173.36835
-0.10519 4112.35670
-0.10484 4051.34505
-0.10450 3990.33340
-0.09879 4374.19117
-0.09305 4752.96462
-0.09270 4691.95297
-0.09236 4630.94133
-0.09201 4569.92968
-0.09167 4508.91803
-0.09132 4447.90638
-0.07890 5037.67126
-0.07841 4951.23810
-0.07600 5428.43168
-0.02143 5784.22131
0.02163 5380.76830
0.02984 5322.29161
0.03018 5261.27996
0.03053 5200.26831
0.03087 5139.25666
0.03916 5068.06922
0.03950 5007.05757
0.04779 4935.87012
0.04813 4874.85847
0.04848 4813.84683
0.04882 4752.83518
0.05491 4605.38557
0.05714 4676.56343
0.06580 4539.28003
0.06614 4478.26838
0.06649 4417.25673
0.06683 4356.24508
0.06718 4295.23343
0.07540 4234.21459
0.07575 4173.20295
0.07609 4112.19130
0.08432 4051.17246
0.08467 3990.16081
0.08501 3929.14916
0.08536 3868.13752
0.09370 3786.78146
0.09404 3725.76981
0.09439 3664.75816
0.09472 3606.28867
0.10308 3522.39046
0.10342 3461.37881
0.10377 3400.36716
0.10411 3339.35552
0.11234 3278.33668
0.11268 3217.32503
0.11301 3158.85553
0.12126 3095.29454
0.12160 3034.28289
0.12195 2973.27125
0.12229 2912.25960
0.12264 2851.24795
0.12866 2715.66172
0.13086 2790.22911
0.13943 2668.19862
0.13978 2607.18697
0.14013 2546.17533
0.14047 2485.16368
0.14082 2424.15203
0.14910 2352.96458
0.14945 2291.95294
0.14978 2233.48344
0.15807 2159.75384
0.15842 2098.74219
0.15877 2037.73054
0.15911 1976.71890
0.16482 1897.06001
0.17562 1844.51261
0.17597 1783.50096
0.17631 1722.48931
0.17666 1661.47766
0.17700 1600.46602
0.18268 1525.89143
0.19346 1478.42834
0.19380 1417.41669
0.19415 1356.40504
0.19449 1295.39339
0.20020 1215.73450
0.21106 1153.01850
0.21141 1092.00685
0.21188 1008.11583
0.22809 929.29474
0.22844 868.28309
0.22891 784.39208
0.24512 705.57098
0.24557 626.76427
0.26203 502.18444
0.27837 400.48398
0.31915 158.94358
0.38263 83.46887
0.46114 137.20584
0.50019 200.72368
0.53128 278.23056
0.56227 373.53249
0.58805 459.51799
0.61384 545.92719
0.63952 649.28407
0.66271 730.61136
0.78794 885.56757
0.85131 829.58269
0.87531 767.27839
0.90203 688.02402
0.92341 623.60366
0.93950 565.11978
0.95551 521.88881
0.97159 465.94709
0.99570 384.57665
1.02776 290.48826
1.05974 209.11063
1.11533 135.33788
1.19852 58.99781
1.25785 21.65898
1.42568 7.35351
1.59673 27.28144
1.67525 78.89995
1.73007 141.55603
1.77693 217.77744
1.80807 285.96308
1.83915 366.01211
1.87019 451.14543
1.90121 541.36306
1.93228 621.41209
1.96340 693.83465
1.98667 759.90903
2.04932 831.87914
2.12030 822.49319
2.16806 741.10118
2.19999 668.19739
2.25331 532.56801
2.28004 450.77148
2.31204 368.12278
2.34402 286.74515
2.37594 217.23089
2.42366 142.61795
2.47919 78.16643
2.55830 26.40409
2.65302 2.59104
2.74758 5.04690
2.84201 32.07689
2.92846 76.73966
2.99907 133.61914
3.05390 194.58045
3.10087 250.46465
3.14782 311.43315
3.19478 369.01211
3.24961 430.82080
3.32030 473.97266
3.42281 465.40534
3.50196 406.44023
3.55742 355.12316
3.61300 283.04518
3.67637 227.06031
3.75551 169.36628
3.85027 138.77416
3.94482 143.77217
4.03928 165.71786
4.13369 194.44262
4.22810 224.86214
4.32253 251.89213
4.41700 271.29567
4.51148 289.85182
4.60601 297.39198
4.70058 299.84784
4.75575 299.79750
4.96006 305.22360
5.52573 322.95565
5.97840 313.41854

